1) Altitude (km) 			[Z]
2) Pressure (mb) 			[P]
3) Temperature (K) 			[T]
4) WaterVapor/Air Mixing Ratio (gm/kg)	[H2O]
5) Ozone/Air mixing ratio (gm/gm)	[O3]


@
Number of Gases: 2,
@
Number of Layers: 62,
@
        Z          P          T        H2O          O3
@


       0.000     1000.258      283.000    7.202e+00    4.810e-08
       0.150      982.269      281.959    5.128e+00    4.878e-08
       0.300      964.539      280.916    5.128e+00    4.955e-08
       0.450      947.065      279.872    4.905e+00    5.036e-08
       0.600      929.843      278.827    4.935e+00    5.118e-08
       0.750      912.872      277.779    4.735e+00    5.194e-08
       0.900      896.148      276.731    4.713e+00    5.260e-08
       1.050      879.669      275.680    4.456e+00    5.315e-08
       1.200      863.431      274.628    4.339e+00    5.367e-08
       1.350      847.432      273.575    4.007e+00    5.419e-08
       1.500      831.670      272.520    3.862e+00    5.473e-08
       1.650      816.142      271.463    3.535e+00    5.525e-08
       1.800      800.844      270.405    3.395e+00    5.572e-08
       1.951      785.775      269.345    3.100e+00    5.615e-08
       2.101      770.932      268.283    2.991e+00    5.655e-08
       2.251      756.312      267.220    2.726e+00    5.697e-08
       2.401      741.912      266.155    2.645e+00    5.743e-08
       2.551      727.731      265.089    2.400e+00    5.786e-08
       2.701      713.765      264.021    2.337e+00    5.823e-08
       2.851      700.012      262.952    2.111e+00    5.849e-08
       3.001      686.469      261.881    2.063e+00    5.868e-08
       3.151      673.135      260.808    1.856e+00    5.880e-08
       3.301      660.006      259.734    1.826e+00    5.889e-08
       3.451      647.081      258.658    1.636e+00    5.902e-08
       3.601      634.356      257.580    1.620e+00    5.926e-08
       3.751      621.829      256.501    1.445e+00    5.967e-08
       3.901      609.499      255.420    1.442e+00    6.019e-08
       4.051      597.363      254.338    1.279e+00    6.078e-08
       4.201      585.417      253.254    1.288e+00    6.137e-08
       4.351      573.661      252.168    1.135e+00    6.196e-08
       4.501      562.092      251.081    1.147e+00    6.254e-08
       4.651      550.707      249.992    9.931e-01    6.313e-08
       4.801      539.505      248.902    1.006e+00    6.371e-08
       4.951      528.483      247.809    8.534e-01    6.429e-08
       5.101      517.639      246.716    8.721e-01    6.486e-08
       5.251      506.970      245.620    7.237e-01    6.543e-08
       5.401      496.476      244.523    7.466e-01    6.603e-08
       5.551      486.152      243.424    6.030e-01    6.666e-08
       5.701      475.998      242.324    6.295e-01    6.732e-08
       5.852      466.012      241.222    4.905e-01    6.798e-08
       6.002      456.190      240.118    5.207e-01    6.861e-08
       6.152      446.532      239.013    3.892e-01    6.922e-08
       6.302      437.035      237.906    4.270e-01    6.984e-08
       6.452      427.697      236.797    3.051e-01    7.052e-08
       6.602      418.516      235.687    3.535e-01    7.123e-08
       6.752      409.490      234.575    2.415e-01    7.192e-08
       6.902      400.617      233.461    2.980e-01    7.253e-08
       7.052      391.895      232.346    1.921e-01    7.311e-08
       7.202      383.323      231.229    2.536e-01    7.382e-08
       7.352      374.897      230.110    1.520e-01    7.480e-08
       7.502      366.618      228.990    2.172e-01    7.607e-08
       9.196      286.000      237.200    3.270e-03    9.290e-08
      14.184      132.000      203.600    3.270e-03    2.080e-07
      19.290       56.500      207.600    3.270e-03    2.010e-06
      24.234       25.700      221.300    3.270e-03    8.400e-06
      29.179       12.200      232.300    3.270e-03    1.310e-05
      34.119        6.000      243.300    3.270e-03    1.070e-05
      39.046        3.050      254.300    3.270e-03    9.800e-06
      43.995        1.590      264.900    3.270e-03    6.180e-06
      48.860        0.854      270.000    3.270e-03    3.910e-06
      58.998        0.222      244.900    3.270e-03    6.680e-06
      68.142        0.058      219.400    3.270e-03    1.570e-06
