1) Altitude (km) 			[Z]
2) Pressure (mb) 			[P]
3) Temperature (K) 			[T]
4) WaterVapor/Air Mixing Ratio (gm/kg)	[H2O]
5) Ozone/Air mixing ratio (gm/gm)	[O3]


@
Number of Gases: 2,
@
Number of Layers: 45,
@
        Z          P          T        H2O          O3
@


       0.000     1012.000      298.880    1.746e+01    4.773e-08
       0.046     1006.700      298.440    1.629e+01    4.789e-08
       0.158      993.800      297.330    1.594e+01    4.833e-08
       0.298      977.900      296.010    1.496e+01    4.896e-08
       0.466      959.100      294.380    1.414e+01    4.980e-08
       0.660      937.700      293.790    1.340e+01    5.081e-08
       0.883      913.700      292.500    1.269e+01    5.190e-08
       1.132      887.400      291.090    1.195e+01    5.290e-08
       1.410      858.900      289.680    1.119e+01    5.381e-08
       1.714      828.500      288.130    1.024e+01    5.483e-08
       2.047      796.400      286.490    9.325e+00    5.585e-08
       2.407      762.800      284.660    8.274e+00    5.678e-08
       2.794      728.000      282.560    7.237e+00    5.785e-08
       3.210      692.200      280.240    6.139e+00    5.861e-08
       3.652      655.700      277.640    5.143e+00    5.893e-08
       4.123      618.600      274.980    4.477e+00    5.979e-08
       4.621      581.300      272.290    3.897e+00    6.158e-08
       5.148      543.900      269.430    3.313e+00    6.348e-08
       5.702      506.800      266.410    2.774e+00    6.544e-08
       6.283      470.200      263.000    2.254e+00    6.770e-08
       6.894      434.100      259.310    1.824e+00    7.005e-08
       7.530      398.900      255.030    1.382e+00    7.264e-08
       8.195      364.600      250.420    9.983e-01    7.642e-08
       8.888      331.400      245.240    6.521e-01    8.261e-08
       9.608      299.400      239.580    4.120e-01    8.945e-08
      10.357      268.700      233.470    2.303e-01    9.968e-08
      11.132      239.500      226.860    1.322e-01    1.136e-07
      11.936      211.800      220.110    5.468e-02    1.309e-07
      12.767      185.800      213.340    2.644e-02    1.510e-07
      13.625      161.600      206.950    7.330e-03    1.689e-07
      14.509      139.400      201.900    8.048e-03    1.969e-07
      15.427      119.200      198.680    8.300e-03    2.241e-07
      16.365      101.400      197.930    4.500e-03    3.252e-07
      17.335       85.800      198.540    4.772e-03    5.265e-07
      18.331       72.300      199.180    2.124e-03    9.282e-07
      18.966       64.846      199.587    3.270e-03    1.340e-06
      19.787       56.500      207.600    3.270e-03    2.010e-06
      24.731       25.700      221.300    3.270e-03    8.400e-06
      29.677       12.200      232.300    3.270e-03    1.310e-05
      34.616        6.000      243.300    3.270e-03    1.070e-05
      39.543        3.050      254.300    3.270e-03    9.800e-06
      44.492        1.590      264.900    3.270e-03    6.180e-06
      49.357        0.854      270.000    3.270e-03    3.910e-06
      59.495        0.222      244.900    3.270e-03    6.680e-06
      68.639        0.058      219.400    3.270e-03    1.570e-06
